# Filename:      /kagra/Dropbox/Personal/Miyo/LOG/190822/TFs/transferfunction.3
# Plot type:     Transfer function
# Output Format: XY  Zero time  Save separate  
# Channels:             A                            B                   Conversion
# Column 1   K1:VIS-ETMX_IP_TEST_L_EXC    K1:VIS-ETMX_IP_BLEND_LVDTL_IN1  Phase (degree)
# Data:
0            180         
0.00390625   179.54239   
0.0078125    178.67746   
0.01171875   177.39268   
0.015625     177.00475   
0.01953125   176.48648   
0.0234375    175.31819   
0.02734375   175.40013   
0.03125      175.55597   
0.03515625   175.2184    
0.0390625    174.12532   
0.04296875   172.72723   
0.046875     173.88878   
0.05078125   172.8123    
0.0546875    173.31003   
0.05859375   171.70752   
0.0625       168.23434   
0.06640625   166.52702   
0.0703125    146.67596   
0.07421875   112.24696   
0.078125     58.90823    
0.08203125   33.948624   
0.0859375    14.674911   
0.08984375   6.0792298   
0.09375      7.791019    
0.09765625   3.5620444   
0.1015625    2.3616934   
0.10546875   1.5926902   
0.109375     -0.12657775 
0.11328125   0.41755986  
0.1171875    0.93574798  
0.12109375   2.8505836   
0.125        1.9995261   
0.12890625   0.12520668  
0.1328125    -0.64466363 
0.13671875   0.94416654  
0.140625     2.2399087   
0.14453125   3.7985458   
0.1484375    -0.54132992 
0.15234375   3.7902601   
0.15625      141.08929   
0.16015625   -178.80357  
0.1640625    -179.7565   
0.16796875   179.28806   
0.171875     177.69971   
0.17578125   177.85736   
0.1796875    178.27719   
0.18359375   177.43356   
0.1875       174.7309    
0.19140625   175.94878   
0.1953125    174.72597   
0.19921875   171.26027   
0.203125     164.92436   
0.20703125   130.29164   
0.2109375    75.831841   
0.21484375   28.924154   
0.21875      11.008265   
0.22265625   4.0700536   
0.2265625    4.5395322   
0.23046875   3.2564428   
0.234375     1.4114435   
0.23828125   1.7258383   
0.2421875    -0.28365701 
0.24609375   1.0116855   
0.25         0.59136558  
0.25390625   1.0032762   
0.2578125    0.32201555  
0.26171875   0.22702178  
0.265625     1.0912001   
0.26953125   0.45301768  
0.2734375    0.64449263  
0.27734375   0.39604491  
0.28125      -0.57835931 
0.28515625   0.7118507   
0.2890625    1.2110889   
0.29296875   1.1048144   
0.296875     0.52572167  
0.30078125   -0.4317354  
0.3046875    0.035279911 
0.30859375   0.00015572683
0.3125       1.1433345   
0.31640625   4.5445957   
0.3203125    2.3286517   
0.32421875   0.74885029  
0.328125     -0.12855913 
0.33203125   -1.2958267  
0.3359375    -0.35024336 
0.33984375   3.0034971   
0.34375      4.5172367   
0.34765625   3.5184169   
0.3515625    3.7986028   
0.35546875   3.8777912   
0.359375     5.2445149   
0.36328125   5.8829947   
0.3671875    8.5229683   
0.37109375   10.069304   
0.375        10.119802   
0.37890625   12.124513   
0.3828125    11.954803   
0.38671875   12.130375   
0.390625     10.685403   
0.39453125   32.02314    
0.3984375    143.89584   
0.40234375   170.27489   
0.40625      172.1006    
0.41015625   177.88649   
0.4140625    175.02422   
0.41796875   172.74614   
0.421875     167.25577   
0.42578125   166.76535   
0.4296875    174.31024   
0.43359375   177.64281   
0.4375       176.30984   
0.44140625   144.57101   
0.4453125    98.443268   
0.44921875   12.597155   
0.453125     5.0713406   
0.45703125   1.4826548   
0.4609375    2.8038437   
0.46484375   1.6597825   
0.46875      3.0971622   
0.47265625   1.4632484   
0.4765625    1.606297    
0.48046875   1.847544    
0.484375     1.8178618   
0.48828125   0.36589921  
0.4921875    0.45187035  
0.49609375   0.56431156  
0.5          0.13320255  
0.50390625   -0.69249046 
0.5078125    -0.73325598 
0.51171875   0.038566716 
0.515625     0.23516339  
0.51953125   -0.34525231 
0.5234375    -0.21950191 
0.52734375   -0.054889511
0.53125      0.25784335  
0.53515625   -0.16642214 
0.5390625    0.098544292 
0.54296875   -0.63880545 
0.546875     -0.34657052 
0.55078125   -0.20989431 
0.5546875    -0.67823529 
0.55859375   -0.52171087 
0.5625       -0.28857568 
0.56640625   0.063516907 
0.5703125    0.13615873  
0.57421875   0.31271937  
0.578125     0.011164543 
0.58203125   0.1228535   
0.5859375    -0.17476511 
0.58984375   -0.35981947 
0.59375      -0.2642754  
0.59765625   0.47849321  
0.6015625    -0.24445289 
0.60546875   0.32957196  
0.609375     1.2465608   
0.61328125   0.88817483  
0.6171875    -0.019381065
0.62109375   0.20516858  
0.625        0.024668366 
0.62890625   1.0296395   
0.6328125    4.1915236   
0.63671875   4.5387421   
0.640625     0.17677242  
0.64453125   -0.31646267 
0.6484375    -0.23640501 
0.65234375   -0.8574419  
0.65625      -1.261336   
0.66015625   0.71791446  
0.6640625    2.5392113   
0.66796875   0.90147763  
0.671875     0.57614642  
0.67578125   2.0013289   
0.6796875    2.5834262   
0.68359375   1.9088136   
0.6875       -1.7112544  
0.69140625   18.333414   
0.6953125    167.77724   
0.69921875   179.3676    
0.703125     175.308     
0.70703125   171.52339   
0.7109375    -178.87561  
0.71484375   171.30038   
0.71875      169.61662   
0.72265625   156.42274   
0.7265625    107.77094   
0.73046875   26.496346   
0.734375     1.8259016   
0.73828125   -1.4009762  
0.7421875    -0.40551049 
0.74609375   0.13495314  
0.75         0.83927506  
0.75390625   -0.06715183 
0.7578125    0.2310518   
0.76171875   0.49514806  
0.765625     -0.019129908
0.76953125   0.0470323   
0.7734375    -0.67909634 
0.77734375   -0.046283167
0.78125      0.073479012 
0.78515625   -0.25262019 
0.7890625    -0.42281374 
0.79296875   -0.13470973 
0.796875     -1.1421673  
0.80078125   1.9622773   
0.8046875    15.233263   
0.80859375   10.516637   
0.8125       1.557237    
0.81640625   -0.13196951 
0.8203125    -0.12023492 
0.82421875   -0.1660433  
0.828125     -1.2081076  
0.83203125   0.58270627  
0.8359375    1.4038413   
0.83984375   0.70427591  
0.84375      1.0913801   
0.84765625   -0.010774541
0.8515625    0.88941783  
0.85546875   0.94479561  
0.859375     1.1524984   
0.86328125   1.874362    
0.8671875    3.4933248   
0.87109375   3.6215718   
0.875        12.832818   
0.87890625   60.42289    
0.8828125    55.201832   
0.88671875   15.083531   
0.890625     2.7374425   
0.89453125   2.0280871   
0.8984375    1.191928    
0.90234375   2.2064197   
0.90625      2.8938515   
0.91015625   2.8143229   
0.9140625    2.4777598   
0.91796875   1.3383569   
0.921875     0.27492255  
0.92578125   3.0325775   
0.9296875    3.7970626   
0.93359375   6.0440283   
0.9375       9.1827221   
0.94140625   12.46806    
0.9453125    19.223307   
0.94921875   26.562311   
0.953125     31.292248   
0.95703125   33.165733   
0.9609375    32.454128   
0.96484375   25.62439    
0.96875      29.380693   
0.97265625   30.883204   
0.9765625    23.261963   
0.98046875   16.405333   
0.984375     8.6776915   
0.98828125   2.282119    
0.9921875    0.61513352  
0.99609375   2.2208729   
1            4.8566656   
1.0039062    5.4617915   
1.0078125    6.434895    
1.0117188    7.4088826   
1.015625     9.8385229   
1.0195312    13.08461    
1.0234375    17.619972   
1.0273438    24.502541   
1.03125      35.853104   
1.0351562    48.523048   
1.0390625    40.112621   
1.0429688    30.89525    
1.046875     21.697378   
1.0507812    16.748306   
1.0546875    16.087103   
1.0585938    15.272675   
1.0625       14.523603   
1.0664062    17.578129   
1.0703125    19.126291   
1.0742188    15.019536   
1.078125     9.960762    
1.0820312    5.1678643   
1.0859375    3.9815276   
1.0898438    3.5636349   
1.09375      0.63925242  
1.0976562    0.44743237  
1.1015625    0.74778748  
1.1054688    0.71237683  
1.109375     1.2307643   
1.1132812    -0.29470837 
1.1171875    -0.062996343
1.1210938    1.2541026   
1.125        0.83668369  
1.1289062    1.2751695   
1.1328125    1.3008929   
1.1367188    -0.18203057 
1.140625     0.19742404  
1.1445312    0.037281476 
1.1484375    0.674685    
1.1523438    -0.25147831 
1.15625      -0.85001087 
1.1601562    -1.5244173  
1.1640625    -1.011865   
1.1679688    -0.38678136 
1.171875     -1.2503122  
1.1757812    -1.1476963  
1.1796875    -0.86071497 
1.1835938    -0.8998692  
1.1875       0.15789469  
1.1914062    0.71982402  
1.1953125    -1.8914917  
1.1992188    -1.377444   
1.203125     0.063304834 
1.2070312    0.43235281  
1.2109375    1.5325352   
1.2148438    0.11015695  
1.21875      -0.69557601 
1.2226562    -1.6092752  
1.2265625    0.060288571 
1.2304688    -0.71963775 
1.234375     -0.32559299 
1.2382812    -1.2353034  
1.2421875    -1.6051044  
1.2460938    -1.1839083  
1.25         -1.6823639  
1.2539062    -0.40103579 
1.2578125    -0.43370053 
1.2617188    0.83814502  
1.265625     -0.17748788 
1.2695312    1.5825846   
1.2734375    2.1906958   
1.2773438    2.0138514   
1.28125      1.1675633   
1.2851562    1.8771873   
1.2890625    2.3536165   
1.2929688    4.367486    
1.296875     4.1766534   
1.3007812    4.543117    
1.3046875    7.730876    
1.3085938    11.886136   
1.3125       12.569909   
1.3164062    12.096556   
1.3203125    11.981188   
1.3242188    9.0713797   
1.328125     6.0622272   
1.3320312    3.9037619   
1.3359375    2.3123615   
1.3398438    3.9226098   
1.34375      3.1816208   
1.3476562    1.2275482   
1.3515625    0.74275213  
1.3554688    1.5575821   
1.359375     1.9299291   
1.3632812    -0.1463868  
1.3671875    2.0243595   
1.3710938    3.0987825   
1.375        3.4812624   
1.3789062    3.1454263   
1.3828125    1.6400043   
1.3867188    2.2045105   
1.390625     5.4318199   
1.3945312    2.6070576   
1.3984375    0.93496305  
1.4023438    0.16579491  
1.40625      1.8308518   
1.4101562    3.4037521   
1.4140625    4.0312366   
1.4179688    3.5437334   
1.421875     3.5580518   
1.4257812    0.87798381  
1.4296875    1.6473162   
1.4335938    0.97077727  
1.4375       0.60373539  
1.4414062    -0.99314833 
1.4453125    -0.93339401 
1.4492188    -1.0512531  
1.453125     -0.33747223 
1.4570312    2.1589859   
1.4609375    3.3158674   
1.4648438    -0.42553049 
1.46875      -0.89618528 
1.4726562    0.22690433  
1.4765625    0.53901672  
1.4804688    -1.9437376  
1.484375     -2.0102396  
1.4882812    0.064132459 
1.4921875    0.46201527  
1.4960938    -1.5046458  
1.5          -1.9224551  
1.5039062    -0.64929664 
1.5078125    -0.58909971 
1.5117188    -3.1642282  
1.515625     -5.0166082  
1.5195312    -2.4561653  
1.5234375    -0.24405891 
1.5273438    -0.36671621 
1.53125      -2.7321947  
1.5351562    -0.76224262 
1.5390625    0.23472185  
1.5429688    -2.3371     
1.546875     -1.7834288  
1.5507812    0.11259801  
1.5546875    -1.529701   
1.5585938    -1.8188536  
1.5625       0.50819892  
1.5664062    0.51440132  
1.5703125    0.14359091  
1.5742188    -1.5905485  
1.578125     -2.8422465  
1.5820312    -3.1457229  
1.5859375    0.16191113  
1.5898438    -0.56417412 
1.59375      -2.5194147  
1.5976562    -2.2383685  
1.6015625    -3.7695885  
1.6054688    -2.3799157  
1.609375     1.9980277   
1.6132812    0.91043997  
1.6171875    -1.5769558  
1.6210938    -0.87073666 
1.625        -2.7917576  
1.6289062    -1.6006014  
1.6328125    -0.27731988 
1.6367188    -1.6233364  
1.640625     -3.7394614  
1.6445312    -2.5818617  
1.6484375    -2.460448   
1.6523438    -2.6925287  
1.65625      -2.7450118  
1.6601562    -1.3095605  
1.6640625    -1.9047101  
1.6679688    -2.62114    
1.671875     -0.52085853 
1.6757812    1.3322996   
1.6796875    -0.41212991 
1.6835938    -1.2737217  
1.6875       -0.244755   
1.6914062    -1.1835583  
1.6953125    -2.753727   
1.6992188    -2.5195208  
1.703125     0.019007474 
1.7070312    -0.96288341 
1.7109375    -1.5522383  
1.7148438    -0.42449892 
1.71875      -2.4323177  
1.7226562    -1.3730413  
1.7265625    -3.1573224  
1.7304688    0.4245587   
1.734375     -0.24860467 
1.7382812    -1.7477212  
1.7421875    -3.2917199  
1.7460938    -0.99018371 
1.75         0.91827273  
1.7539062    -1.4871813  
1.7578125    0.83765489  
1.7617188    -2.706625   
1.765625     -3.3576519  
1.7695312    -1.8035879  
1.7734375    -0.66526967 
1.7773438    -0.1825472  
1.78125      -4.0738459  
1.7851562    -3.3007071  
1.7890625    -4.3993869  
1.7929688    -2.4681826  
1.796875     -1.1619251  
1.8007812    -2.1341412  
1.8046875    -1.8886482  
1.8085938    0.91963267  
1.8125       -1.9810007  
1.8164062    -2.1285152  
1.8203125    -1.4003054  
1.8242188    -1.3593441  
1.828125     -3.6432858  
1.8320312    -5.0309081  
1.8359375    -3.5979757  
1.8398438    -3.016207   
1.84375      2.1309609   
1.8476562    -2.1903682  
1.8515625    1.4041268   
1.8554688    1.8632101   
1.859375     1.3471377   
1.8632812    0.60481274  
1.8671875    -2.917182   
1.8710938    -5.947731   
1.875        -2.9804473  
1.8789062    -3.4241989  
1.8828125    -1.7906891  
1.8867188    0.78608596  
1.890625     -2.921458   
1.8945312    -1.3622934  
1.8984375    0.63363242  
1.9023438    2.1047328   
1.90625      0.097333051 
1.9101562    0.49573916  
1.9140625    0.7505272   
1.9179688    -0.60923856 
1.921875     -4.7707267  
1.9257812    -2.330874   
1.9296875    -6.063736   
1.9335938    -5.587378   
1.9375       -0.39372325 
1.9414062    1.0796512   
1.9453125    1.5584803   
1.9492188    -1.7382625  
1.953125     -1.9531653  
1.9570312    -2.2597055  
1.9609375    -3.384732   
1.9648438    -6.0104856  
1.96875      -7.2710586  
1.9726562    -3.7622874  
1.9765625    -1.4695534  
1.9804688    -0.39303291 
1.984375     0.91119009  
1.9882812    -1.0046817  
1.9921875    -3.6548707  
1.9960938    -3.8463807  
2            0.72779894  
2.0039062    -5.3469687  
2.0078125    -1.9521271  
2.0117188    0.75500631  
2.015625     1.7925909   
2.0195312    -1.3659812  
2.0234375    -3.5630984  
2.0273438    -3.6424875  
2.03125      -6.0093803  
2.0351562    -7.7788901  
2.0390625    -5.4419847  
2.0429688    2.8547337   
2.046875     2.408129    
2.0507812    0.7217418   
2.0546875    5.5784597   
2.0585938    3.8737528   
2.0625       -1.5450466  
2.0664062    -3.6581528  
2.0703125    -6.5751247  
2.0742188    -7.1027846  
2.078125     -6.8310738  
2.0820312    -9.4206076  
2.0859375    -2.5966504  
2.0898438    3.9958067   
2.09375      -3.3887467  
2.0976562    -4.8818264  
2.1015625    -4.1436706  
2.1054688    -4.7339959  
2.109375     -1.5962629  
2.1132812    -1.2921748  
2.1171875    -1.7783431  
2.1210938    -1.9746763  
2.125        -1.8209321  
2.1289062    -1.8945016  
2.1328125    -0.012896228
2.1367188    -1.3347541  
2.140625     -1.4326489  
2.1445312    2.494822    
2.1484375    2.7069209   
2.1523438    -2.9493558  
2.15625      -4.0069242  
2.1601562    -1.3911328  
2.1640625    -3.0106699  
2.1679688    2.5161166   
2.171875     -0.91103566 
2.1757812    -2.7592413  
2.1796875    0.67111748  
2.1835938    -1.0138029  
2.1875       -2.0347228  
2.1914062    -4.6411085  
2.1953125    -5.0885806  
2.1992188    -5.7433219  
2.203125     -2.5295415  
2.2070312    -5.6298985  
2.2109375    -0.49199918 
2.2148438    0.64904213  
2.21875      -0.56270242 
2.2226562    -4.9925528  
2.2265625    -6.1657038  
2.2304688    -0.91769284 
2.234375     -0.50563407 
2.2382812    -1.7310561  
2.2421875    -0.39186782 
2.2460938    -3.6593671  
2.25         -1.000373   
2.2539062    -0.020948334
2.2578125    0.96299237  
2.2617188    -0.034348827
2.265625     -3.6588655  
2.2695312    -6.8545761  
2.2734375    -0.84893978 
2.2773438    5.155992    
2.28125      -2.1038098  
2.2851562    -7.1306467  
2.2890625    0.34103894  
2.2929688    1.7963362   
2.296875     -4.124166   
2.3007812    -1.4239321  
2.3046875    -6.83811    
2.3085938    -3.4521334  
2.3125       -3.485779   
2.3164062    -1.7008488  
2.3203125    -1.5836867  
2.3242188    -2.5446026  
2.328125     -1.7760464  
2.3320312    -0.94102257 
2.3359375    -0.98145765 
2.3398438    -2.746758   
2.34375      0.57786131  
2.3476562    0.02835867  
2.3515625    -1.7646306  
2.3554688    1.3185267   
2.359375     1.1820252   
2.3632812    2.5125897   
2.3671875    -3.6826601  
2.3710938    2.4052219   
2.375        0.071039736 
2.3789062    -1.562428   
2.3828125    -4.4460993  
2.3867188    4.1311755   
2.390625     1.7782177   
2.3945312    -0.50648111 
2.3984375    1.3488133   
2.4023438    -2.5767798  
2.40625      -0.5285179  
2.4101562    -2.8321519  
2.4140625    0.94060761  
2.4179688    -3.7551095  
2.421875     -2.5290709  
2.4257812    1.0731354   
2.4296875    -4.0331898  
2.4335938    -1.9210478  
2.4375       -3.7237928  
2.4414062    -2.7389188  
2.4453125    -3.0460105  
2.4492188    -3.6339927  
2.453125     -6.6794887  
2.4570312    -3.229264   
2.4609375    -0.47401056 
2.4648438    -0.38086891 
2.46875      0.75027496  
2.4726562    1.7754325   
2.4765625    0.75940317  
2.4804688    -5.828939   
2.484375     0.76623225  
2.4882812    -1.5260171  
2.4921875    -6.79145    
2.4960938    -9.2526712  
2.5          -7.1932278  
2.5039062    -11.634698  
2.5078125    -1.6580073  
2.5117188    -2.8244102  
2.515625     0.035870787 
2.5195312    3.4717462   
2.5234375    -1.7287531  
2.5273438    -5.9789152  
2.53125      -3.8438632  
2.5351562    -13.777358  
2.5390625    -4.9252882  
2.5429688    -7.9408798  
2.546875     -3.6706727  
2.5507812    1.2612911   
2.5546875    -1.6202911  
2.5585938    -4.7473979  
2.5625       -0.54465139 
2.5664062    0.3926087   
2.5703125    -1.50921    
2.5742188    -1.1556664  
2.578125     -1.2258195  
2.5820312    -6.2428303  
2.5859375    -3.2109625  
2.5898438    -4.6385307  
2.59375      -7.8503366  
2.5976562    2.09535     
2.6015625    -8.9085903  
2.6054688    -3.8329487  
2.609375     3.3979435   
2.6132812    2.9959574   
2.6171875    -8.1375656  
2.6210938    -14.307396  
2.625        -4.6245928  
2.6289062    -0.89139837 
2.6328125    -2.5909185  
2.6367188    -6.5206442  
2.640625     -0.48687291 
2.6445312    3.4211044   
2.6484375    -2.0617635  
2.6523438    1.1814669   
2.65625      1.2702123   
2.6601562    -1.7049645  
2.6640625    -1.1667008  
2.6679688    -2.3496757  
2.671875     3.9390001   
2.6757812    6.8829098   
2.6796875    4.0519733   
2.6835938    -2.5016816  
2.6875       1.1138132   
2.6914062    0.30508754  
2.6953125    4.2478285   
2.6992188    3.175771    
2.703125     -6.9191561  
2.7070312    -10.538462  
2.7109375    -5.0701389  
2.7148438    -8.4336052  
2.71875      -10.602777  
2.7226562    -10.233615  
2.7265625    -2.811394   
2.7304688    4.5765872   
2.734375     -0.38604778 
2.7382812    -0.75690144 
2.7421875    -5.8800364  
2.7460938    -0.067186572
2.75         -1.4389378  
2.7539062    -2.2354372  
2.7578125    -6.2257485  
2.7617188    -0.78132778 
2.765625     -0.97199506 
2.7695312    0.87066948  
2.7734375    1.22507     
2.7773438    -4.0638905  
2.78125      -2.7592175  
2.7851562    -3.8614979  
2.7890625    -3.5496106  
2.7929688    -1.1850959  
2.796875     6.9944086   
2.8007812    10.251686   
2.8046875    -2.635304   
2.8085938    1.955794    
2.8125       3.0939536   
2.8164062    3.3933938   
2.8203125    4.2907929   
2.8242188    4.6128335   
2.828125     4.4612989   
2.8320312    -2.7792749  
2.8359375    -0.29792172 
2.8398438    -0.83693111 
2.84375      3.6030664   
2.8476562    1.5536673   
2.8515625    -3.2446306  
2.8554688    -7.8479795  
2.859375     -10.037502  
2.8632812    -7.7277393  
2.8671875    -4.5799742  
2.8710938    -8.6685295  
2.875        -0.4505071  
2.8789062    -2.989512   
2.8828125    -7.1326833  
2.8867188    -0.19776173 
2.890625     -7.4510298  
2.8945312    4.7172971   
2.8984375    -0.12120833 
2.9023438    3.3285303   
2.90625      5.4351478   
2.9101562    4.7378488   
2.9140625    -5.0490894  
2.9179688    -3.0675805  
2.921875     4.2157774   
2.9257812    -4.7193642  
2.9296875    -3.2111146  
2.9335938    5.3596625   
2.9375       -2.7235827  
2.9414062    -1.3719206  
2.9453125    6.3857307   
2.9492188    3.5471318   
2.953125     -3.7966232  
2.9570312    -12.619295  
2.9609375    -9.6744328  
2.9648438    -4.4928441  
2.96875      -15.784919  
2.9726562    0.036810014 
2.9765625    5.8286352   
2.9804688    3.7895105   
2.984375     -1.0182127  
2.9882812    -8.3421879  
2.9921875    -1.730566   
2.9960938    1.7717822   
3            -4.7706308  
3.0039062    -8.4116297  
3.0078125    -10.044316  
3.0117188    -12.844794  
3.015625     -3.9230242  
3.0195312    -2.9206052  
3.0234375    -5.5867963  
3.0273438    -2.8211637  
3.03125      -1.529987   
3.0351562    0.66800678  
3.0390625    -2.6782916  
3.0429688    -1.8101288  
3.046875     1.1338146   
3.0507812    5.3825693   
3.0546875    -13.061114  
3.0585938    -9.2014122  
3.0625       7.8298206   
3.0664062    9.2030334   
3.0703125    -6.0180011  
3.0742188    -7.7089472  
3.078125     -2.7532055  
3.0820312    -22.73037   
3.0859375    -14.618203  
3.0898438    -8.8088627  
3.09375      -13.61373   
3.0976562    -21.157354  
3.1015625    -14.368178  
3.1054688    -6.7703342  
3.109375     -11.164939  
3.1132812    -6.7659593  
3.1171875    0.61929345  
3.1210938    3.4023135   
3.125        0.90263832  
3.1289062    -6.7980781  
3.1328125    -4.2694478  
3.1367188    2.8021281   
3.140625     11.105177   
3.1445312    6.5483112   
3.1484375    -0.20775639 
3.1523438    11.44142    
3.15625      11.173332   
3.1601562    22.684671   
3.1640625    9.0703745   
3.1679688    1.0307946   
3.171875     2.4973326   
3.1757812    3.3075461   
3.1796875    -9.9042053  
3.1835938    2.6776946   
3.1875       4.2289667   
3.1914062    -7.2296762  
3.1953125    -14.905423  
3.1992188    -1.5737947  
3.203125     -8.4157305  
3.2070312    -0.23078306 
3.2109375    3.2545068   
3.2148438    -6.3966608  
3.21875      -8.5267334  
3.2226562    1.1053486   
3.2265625    12.183974   
3.2304688    17.958717   
3.234375     6.7452154   
3.2382812    1.9864085   
3.2421875    2.9083333   
3.2460938    -2.0037904  
3.25         -6.0009284  
3.2539062    -7.8141632  
3.2578125    -21.095064  
3.2617188    -6.8520813  
3.265625     -7.6731763  
3.2695312    -4.4010096  
3.2734375    -2.3844464  
3.2773438    7.0950303   
3.28125      -1.0320197  
3.2851562    -3.590332   
3.2890625    -14.032308  
3.2929688    3.2168322   
3.296875     10.597422   
3.3007812    11.830863   
3.3046875    10.277677   
3.3085938    -3.8416202  
3.3125       -5.9797959  
3.3164062    -2.5417666  
3.3203125    -8.5916491  
3.3242188    -4.4382238  
3.328125     2.7961793   
3.3320312    9.7627983   
3.3359375    -1.4427208  
3.3398438    2.3662496   
3.34375      17.395855   
3.3476562    11.911754   
3.3515625    -5.2280807  
3.3554688    1.1051691   
3.359375     13.982802   
3.3632812    6.0547519   
3.3671875    9.6388083   
3.3710938    0.20390023  
3.375        -14.78346   
3.3789062    -5.0299921  
3.3828125    0.13128859  
3.3867188    -4.8912225  
3.390625     -14.926932  
3.3945312    -18.16819   
3.3984375    2.0500536   
3.4023438    6.9606152   
3.40625      -2.657759   
3.4101562    -2.5133212  
3.4140625    -2.5210242  
3.4179688    -19.770245  
3.421875     -15.252885  
3.4257812    -22.201382  
3.4296875    -8.7835073  
3.4335938    -5.3802495  
3.4375       -22.440506  
3.4414062    -6.7330008  
3.4453125    -16.15976   
3.4492188    -31.528913  
3.453125     -32.346523  
3.4570312    8.3975048   
3.4609375    9.4754086   
3.4648438    -10.639109  
3.46875      -4.1286354  
3.4726562    15.939896   
3.4765625    4.1102896   
3.4804688    1.6287441   
3.484375     1.7453026   
3.4882812    -11.076768  
3.4921875    -7.2700386  
3.4960938    0.30292109  
3.5          8.15942     
3.5039062    8.0967302   
3.5078125    0.10234592  
3.5117188    7.0320182   
3.515625     0.49820471  
3.5195312    -14.87695   
3.5234375    -12.824917  
3.5273438    -14.827482  
3.53125      -12.315188  
3.5351562    -15.474233  
3.5390625    -22.96398   
3.5429688    3.6497128   
3.546875     13.866399   
3.5507812    2.8558908   
3.5546875    1.0768619   
3.5585938    6.9071403   
3.5625       -2.8358164  
3.5664062    -13.880945  
3.5703125    -4.7554245  
3.5742188    -22.926844  
3.578125     5.9239178   
3.5820312    14.763296   
3.5859375    -15.323773  
3.5898438    -3.3403122  
3.59375      4.3429728   
3.5976562    12.834087   
3.6015625    26.77051    
3.6054688    11.3434     
3.609375     24.000772   
3.6132812    4.286283    
3.6171875    1.6359352   
3.6210938    2.7856531   
3.625        1.6620201   
3.6289062    -4.5030999  
3.6328125    13.295087   
3.6367188    11.910574   
3.640625     16.342106   
3.6445312    1.4588071   
3.6484375    -7.3446054  
3.6523438    -3.0223868  
3.65625      3.4966042   
3.6601562    7.1251941   
3.6640625    26.051935   
3.6679688    2.1391473   
3.671875     -9.943018   
3.6757812    -16.386656  
3.6796875    -0.77069801 
3.6835938    19.755129   
3.6875       16.747301   
3.6914062    -5.4618707  
3.6953125    1.7802664   
3.6992188    -3.7983065  
3.703125     -20.687101  
3.7070312    -13.042078  
3.7109375    5.053051    
3.7148438    -17.167105  
3.71875      -9.2195091  
3.7226562    -3.9366925  
3.7265625    -5.0253406  
3.7304688    6.7877922   
3.734375     -18.341078  
3.7382812    -4.1428819  
3.7421875    5.8225293   
3.7460938    -7.1168389  
3.75         -21.455002  
3.7539062    6.6435356   
3.7578125    -14.367701  
3.7617188    -5.966651   
3.765625     -5.7828908  
3.7695312    12.073189   
3.7734375    8.1055288   
3.7773438    17.129013   
3.78125      -10.978977  
3.7851562    -0.43450645 
3.7890625    23.87879    
3.7929688    9.1093359   
3.796875     -13.346647  
3.8007812    -27.812662  
3.8046875    -28.195618  
3.8085938    -16.232685  
3.8125       -11.558007  
3.8164062    -30.011103  
3.8203125    -24.676775  
3.8242188    -13.975559  
3.828125     -18.177988  
3.8320312    -29.816839  
3.8359375    7.9288445   
3.8398438    8.5298185   
3.84375      26.753437   
3.8476562    -0.83179367 
3.8515625    8.9527721   
3.8554688    -24.906652  
3.859375     -26.341825  
3.8632812    -10.558857  
3.8671875    -9.9648342  
3.8710938    -4.526145   
3.875        -6.6058807  
3.8789062    -12.841503  
3.8828125    -17.182142  
3.8867188    -20.952404  
3.890625     -3.6993923  
3.8945312    -3.3773944  
3.8984375    0.78233862  
3.9023438    -16.540346  
3.90625      -51.821686  
3.9101562    -13.287271  
3.9140625    -11.156142  
3.9179688    -8.0563354  
3.921875     15.479755   
3.9257812    14.998305   
3.9296875    -6.1308923  
3.9335938    -8.0129833  
3.9375       -1.000748   
3.9414062    20.277348   
3.9453125    15.288191   
3.9492188    14.826396   
3.953125     -1.3517801  
3.9570312    26.382622   
3.9609375    8.5274315   
3.9648438    -36.941223  
3.96875      -22.349815  
3.9726562    20.030077   
3.9765625    8.8751688   
3.9804688    5.1829329   
3.984375     -8.4761477  
3.9882812    3.3117485   
3.9921875    6.270031    
3.9960938    -4.609714   
4            5.2280159   
4.0039062    3.4584451   
4.0078125    -16.943508  
4.0117188    -25.806301  
4.015625     0.59320468  
4.0195312    21.4534     
4.0234375    6.890028    
4.0273438    -14.163044  
4.03125      -16.267658  
4.0351562    -17.847755  
4.0390625    14.01833    
4.0429688    -7.7367148  
4.046875     -13.090802  
4.0507812    -9.6305275  
4.0546875    -6.9022841  
4.0585938    -19.767746  
4.0625       -37.601185  
4.0664062    -11.446845  
4.0703125    -14.268491  
4.0742188    -4.4800911  
4.078125     -8.2310514  
4.0820312    64.030312   
4.0859375    65.301987   
4.0898438    -18.364988  
4.09375      -7.818418   
4.0976562    9.963913    
4.1015625    -28.995348  
4.1054688    -51.086735  
4.109375     -3.6746671  
4.1132812    29.600096   
4.1171875    32.69809    
4.1210938    20.597845   
4.125        15.302568   
4.1289062    -0.64493549 
4.1328125    -1.201964   
4.1367188    3.9420664   
4.140625     -31.887384  
4.1445312    -23.068724  
4.1484375    -2.1266911  
4.1523438    -5.6519585  
4.15625      -22.761005  
4.1601562    -0.54804474 
4.1640625    2.8277452   
4.1679688    -64.569473  
4.171875     -43.460815  
4.1757812    -8.0616417  
4.1796875    -22.981689  
4.1835938    -18.798529  
4.1875       55.237259   
4.1914062    67.875412   
4.1953125    -17.327461  
4.1992188    -25.352016  
4.203125     18.490627   
4.2070312    5.4924207   
4.2109375    -4.2164283  
4.2148438    -7.4723196  
4.21875      -24.340984  
4.2226562    -28.924589  
4.2265625    26.602966   
4.2304688    29.271053   
4.234375     -9.2852812  
4.2382812    4.2132006   
4.2421875    18.262871   
4.2460938    30.459911   
4.25         -75.169762  
4.2539062    -2.6559079  
4.2578125    23.819489   
4.2617188    -0.031501956
4.265625     -19.061529  
4.2695312    -19.780293  
4.2734375    -18.498718  
4.2773438    -34.427116  
4.28125      -43.10931   
4.2851562    -13.90564   
4.2890625    -6.8083801  
4.2929688    9.0779228   
4.296875     25.041689   
4.3007812    19.494596   
4.3046875    22.72209    
4.3085938    25.033436   
4.3125       17.346348   
4.3164062    0.87286258  
4.3203125    10.972337   
4.3242188    -37.764011  
4.328125     1.3490573   
4.3320312    16.542429   
4.3359375    -9.925662   
4.3398438    18.100002   
4.34375      -2.0881021  
4.3476562    9.0912657   
4.3515625    36.579033   
4.3554688    12.648412   
4.359375     -19.665255  
4.3632812    -26.647774  
4.3671875    -13.24047   
4.3710938    11.25214    
4.375        4.5936546   
4.3789062    19.724539   
4.3828125    34.332027   
4.3867188    -51.203693  
4.390625     24.111744   
4.3945312    49.355217   
4.3984375    -8.0971184  
4.4023438    -25.128628  
4.40625      -17.438564  
4.4101562    -13.559378  
4.4140625    -75.233231  
4.4179688    27.633482   
4.421875     21.896128   
4.4257812    31.963776   
4.4296875    27.740347   
4.4335938    3.2311428   
4.4375       -13.332349  
4.4414062    -19.09935   
4.4453125    39.321712   
4.4492188    25.726381   
4.453125     -49.912083  
4.4570312    61.122742   
4.4609375    24.00606    
4.4648438    23.180119   
4.46875      33.496708   
4.4726562    -67.093895  
4.4765625    -35.6954    
4.4804688    9.3776331   
4.484375     -5.428988   
4.4882812    27.483011   
4.4921875    -1.314893   
4.4960938    -22.558266  
4.5          26.025164   
4.5039062    -25.996943  
4.5078125    -61.526237  
4.5117188    -24.156397  
4.515625     -8.6352634  
4.5195312    2.104382    
4.5234375    -18.914448  
4.5273438    -11.26864   
4.53125      9.0228167   
4.5351562    -9.8131361  
4.5390625    -20.523335  
4.5429688    -57.634769  
4.546875     34.985729   
4.5507812    15.104819   
4.5546875    23.393417   
4.5585938    27.587513   
4.5625       48.764488   
4.5664062    29.6766     
4.5703125    -25.309177  
4.5742188    -4.7484617  
4.578125     -17.819033  
4.5820312    5.908287    
4.5859375    23.321884   
4.5898438    36.047974   
4.59375      44.800163   
4.5976562    -15.900153  
4.6015625    18.570417   
4.6054688    -23.92079   
4.609375     46.517902   
4.6132812    8.1258192   
4.6171875    20.4839     
4.6210938    23.389601   
4.625        13.880959   
4.6289062    64.326553   
4.6328125    -168.74405  
4.6367188    -25.660543  
4.640625     19.697508   
4.6445312    25.633598   
4.6484375    1.6218171   
4.6523438    -14.627992  
4.65625      -25.002134  
4.6601562    -17.748121  
4.6640625    51.001396   
4.6679688    91.33506    
4.671875     -63.094402  
4.6757812    -21.613991  
4.6796875    -24.782152  
4.6835938    -30.651253  
4.6875       59.256374   
4.6914062    -13.46253   
4.6953125    -13.309803  
4.6992188    17.943916   
4.703125     -30.448757  
4.7070312    23.813412   
4.7109375    13.021402   
4.7148438    -19.02117   
4.71875      179.42714   
4.7226562    82.941933   
4.7265625    39.160046   
4.7304688    18.585506   
4.734375     22.946058   
4.7382812    -98.727379  
4.7421875    -48.077541  
4.7460938    -29.7253    
4.75         2.5147572   
4.7539062    -5.2134056  
4.7578125    9.0866251   
4.7617188    43.464397   
4.765625     -5.2865472  
4.7695312    7.7674718   
4.7734375    -1.7015096  
4.7773438    32.319523   
4.78125      82.27977    
4.7851562    16.348852   
4.7890625    -119.70029  
4.7929688    -37.664822  
4.796875     -10.030974  
4.8007812    -8.2699423  
4.8046875    -6.3023591  
4.8085938    -53.578945  
4.8125       -81.135941  
4.8164062    -48.738064  
4.8203125    43.224262   
4.8242188    66.888649   
4.828125     23.887911   
4.8320312    35.356544   
4.8359375    49.17696    
4.8398438    41.011452   
4.84375      6.9451356   
4.8476562    -83.896141  
4.8515625    -58.128571  
4.8554688    -96.72506   
4.859375     -132.09456  
4.8632812    23.999218   
4.8671875    -49.346622  
4.8710938    -177.01546  
4.875        32.945797   
4.8789062    14.839334   
4.8828125    40.445774   
4.8867188    29.407442   
4.890625     -1.2963247  
4.8945312    8.5405464   
4.8984375    -140.35205  
4.9023438    -95.408569  
4.90625      -1.889402   
4.9101562    12.528007   
4.9140625    -22.521048  
4.9179688    43.531586   
4.921875     49.113834   
4.9257812    -0.38835698 
4.9296875    34.28529    
4.9335938    -64.80999   
4.9375       -72.996887  
4.9414062    37.020832   
4.9453125    86.063347   
4.9492188    -43.827007  
4.953125     -48.243206  
4.9570312    53.693153   
4.9609375    -18.074272  
4.9648438    37.011562   
4.96875      9.7825775   
4.9726562    31.815405   
4.9765625    45.288479   
4.9804688    -35.368698  
4.984375     6.5812297   
4.9882812    -74.45607   
4.9921875    132.66063   
4.9960938    86.589386   
5            -36.761982  
5.0039062    -11.032651  
5.0078125    7.2710776   
5.0117188    -46.492542  
5.015625     -21.148003  
5.0195312    112.80535   
5.0234375    -54.124279  
5.0273438    -82.244087  
5.03125      55.49102    
5.0351562    32.643131   
5.0390625    -25.78727   
5.0429688    -25.170406  
5.046875     -55.948948  
5.0507812    91.984718   
5.0546875    56.4161     
5.0585938    74.988808   
5.0625       56.908695   
5.0664062    -20.41824   
5.0703125    -83.463974  
5.0742188    -43.765755  
5.078125     -7.9814291  
5.0820312    -38.883469  
5.0859375    -43.286266  
5.0898438    24.466803   
5.09375      30.783039   
5.0976562    45.204872   
5.1015625    55.775196   
5.1054688    73.734818   
5.109375     154.14166   
5.1132812    10.655971   
5.1171875    75.415268   
5.1210938    85.259819   
5.125        28.879259   
5.1289062    -120.38718  
5.1328125    -86.317268  
5.1367188    -85.965538  
5.140625     -81.699585  
5.1445312    -70.855652  
5.1484375    172.28929   
5.1523438    177.4738    
5.15625      132.3176    
5.1601562    63.884552   
5.1640625    91.84407    
5.1679688    107.78279   
5.171875     -171.91562  
5.1757812    165.77553   
5.1796875    -167.98628  
5.1835938    -45.310501  
5.1875       -61.013081  
5.1914062    53.454227   
5.1953125    -37.353954  
5.1992188    134.94391   
5.203125     114.61274   
5.2070312    62.326      
5.2109375    29.186262   
5.2148438    -50.254959  
5.21875      -14.581578  
5.2226562    42.704323   
5.2265625    117.09265   
5.2304688    47.611958   
5.234375     22.897509   
5.2382812    59.288944   
5.2421875    60.846397   
5.2460938    144.25327   
5.25         140.69821   
5.2539062    178.92339   
5.2578125    179.37973   
5.2617188    -7.7982316  
5.265625     -41.588963  
5.2695312    55.740158   
5.2734375    68.930817   
5.2773438    156.83289   
5.28125      144.14577   
5.2851562    -117.51286  
5.2890625    -126.96949  
5.2929688    -107.35311  
5.296875     128.14693   
5.3007812    179.91029   
5.3046875    -4.2536469  
5.3085938    3.6702249   
5.3125       177.75299   
5.3164062    -166.98637  
5.3203125    -155.01312  
5.3242188    -128.97412  
5.328125     -82.74855   
5.3320312    -154.43433  
5.3359375    133.04997   
5.3398438    175.62894   
5.34375      104.85931   
5.3476562    72.357491   
5.3515625    -2.2468023  
5.3554688    -17.835001  
5.359375     -94.163582  
5.3632812    47.75843    
5.3671875    -151.36185  
5.3710938    -98.935837  
5.375        -96.109184  
5.3789062    1.3779438   
5.3828125    27.610876   
5.3867188    33.89835    
5.390625     142.18094   
5.3945312    38.827652   
5.3984375    -35.100044  
5.4023438    -46.062702  
5.40625      44.410252   
5.4101562    103.0622    
5.4140625    93.22084    
5.4179688    27.93807    
5.421875     -88.455429  
5.4257812    -142.95787  
5.4296875    -140.63861  
5.4335938    -97.978554  
5.4375       -101.24987  
5.4414062    150.3838    
5.4453125    103.30357   
5.4492188    87.746834   
5.453125     119.26523   
5.4570312    126.94746   
5.4609375    6.8246698   
5.4648438    52.748764   
5.46875      156.19194   
5.4726562    123.37497   
5.4765625    145.86046   
5.4804688    105.13376   
5.484375     -179.95435  
5.4882812    -153.86086  
5.4921875    -111.40307  
5.4960938    115.05801   
5.5          67.64222    
5.5039062    38.824734   
5.5078125    -117.82597  
5.5117188    -135.4715   
5.515625     -98.945084  
5.5195312    -128.65344  
5.5234375    167.67677   
5.5273438    -161.56702  
5.53125      -150.71434  
5.5351562    179.92834   
5.5390625    -39.517426  
5.5429688    -59.803787  
5.546875     -43.524227  
5.5507812    -68.468605  
5.5546875    -123.90816  
5.5585938    91.642128   
5.5625       139.99417   
5.5664062    -107.79119  
5.5703125    -79.570328  
5.5742188    -75.990677  
5.578125     102.62556   
5.5820312    108.43956   
5.5859375    -71.290886  
5.5898438    -90.736557  
5.59375      -137.36357  
5.5976562    -135.06798  
5.6015625    116.08341   
5.6054688    -150.34988  
5.609375     -85.030083  
5.6132812    145.73769   
5.6171875    176.77711   
5.6210938    6.7569027   
5.625        -170.65958  
5.6289062    -177.00255  
5.6328125    144.73576   
5.6367188    85.246475   
5.640625     -47.847813  
5.6445312    -105.13692  
5.6484375    136.24399   
5.6523438    160.70964   
5.65625      -153.89334  
5.6601562    130.56749   
5.6640625    123.72736   
5.6679688    155.48476   
5.671875     -114.32168  
5.6757812    -115.71161  
5.6796875    -160.6727   
5.6835938    81.094788   
5.6875       61.657982   
5.6914062    129.7016    
5.6953125    62.18906    
5.6992188    -9.9022408  
5.703125     -137.25206  
5.7070312    25.339025   
5.7109375    -51.527981  
5.7148438    -31.566957  
5.71875      78.796738   
5.7226562    113.0797    
5.7265625    -121.98602  
5.7304688    -121.20514  
5.734375     -152.43013  
5.7382812    144.11618   
5.7421875    -15.346066  
5.7460938    31.280449   
5.75         68.14875    
5.7539062    23.325735   
5.7578125    -15.31765   
5.7617188    -163.97548  
5.765625     170.30109   
5.7695312    -92.633499  
5.7734375    7.6609511   
5.7773438    105.37218   
5.78125      148.34305   
5.7851562    114.68501   
5.7890625    100.94183   
5.7929688    142.69977   
5.796875     163.18596   
5.8007812    179.81824   
5.8046875    -111.89861  
5.8085938    92.750267   
5.8125       155.45522   
5.8164062    70.574844   
5.8203125    92.565117   
5.8242188    154.21344   
5.828125     -9.0341091  
5.8320312    27.152285   
5.8359375    31.964794   
5.8398438    107.25517   
5.84375      166.83594   
5.8476562    139.69945   
5.8515625    -177.02547  
5.8554688    175.87004   
5.859375     131.05132   
5.8632812    154.50922   
5.8671875    156.51616   
5.8710938    74.797668   
5.875        -99.10128   
5.8789062    -123.91409  
5.8828125    -140.45525  
5.8867188    164.78578   
5.890625     136.73567   
5.8945312    58.519333   
5.8984375    107.50605   
5.9023438    -168.75621  
5.90625      -169.04071  
5.9101562    66.591637   
5.9140625    -130.43654  
5.9179688    169.00415   
5.921875     127.11176   
5.9257812    -139.94911  
5.9296875    -89.001846  
5.9335938    -118.25874  
5.9375       -164.27675  
5.9414062    120.14893   
5.9453125    138.34273   
5.9492188    134.6745    
5.953125     -136.21616  
5.9570312    -143.4463   
5.9609375    138.17676   
5.9648438    119.40776   
5.96875      112.35216   
5.9726562    137.09738   
5.9765625    148.59808   
5.9804688    155.97391   
5.984375     140.25545   
5.9882812    66.018929   
5.9921875    119.38799   
5.9960938    -178.67854  
6            -163.79404  
6.0039062    -136.4167   
6.0078125    -162.69724  
6.0117188    111.93374   
6.015625     134.10246   
6.0195312    1.287812    
6.0234375    96.297401   
6.0273438    143.45615   
6.03125      145.39774   
6.0351562    68.222183   
6.0390625    77.961349   
6.0429688    167.3694    
6.046875     -150.02686  
6.0507812    176.85504   
6.0546875    161.3316    
6.0585938    76.89444    
6.0625       112.85968   
6.0664062    94.462875   
6.0703125    123.02962   
6.0742188    110.19745   
6.078125     114.27865   
6.0820312    146.16261   
6.0859375    116.9081    
6.0898438    -127.04102  
6.09375      -160.95888  
6.0976562    115.12476   
6.1015625    107.34946   
6.1054688    126.40137   
6.109375     146.52151   
6.1132812    162.94376   
6.1171875    148.17261   
6.1210938    154.10454   
6.125        146.55605   
6.1289062    140.994     
6.1328125    -151.92522  
6.1367188    -17.551807  
6.140625     62.782673   
6.1445312    90.67643    
6.1484375    102.66425   
6.1523438    89.922173   
6.15625      179.04443   
6.1601562    159.75676   
6.1640625    70.885422   
6.1679688    91.675728   
6.171875     137.26682   
6.1757812    -170.19044  
6.1796875    -161.89203  
6.1835938    162.6913    
6.1875       96.486137   
6.1914062    96.694031   
6.1953125    122.85272   
6.1992188    141.43465   
6.203125     148.52475   
6.2070312    80.982437   
6.2109375    95.355377   
6.2148438    167.44791   
6.21875      169.7558    
6.2226562    138.33557   
6.2265625    166.36923   
6.2304688    -154.76013  
6.234375     141.2738    
6.2382812    86.055405   
6.2421875    143.42787   
6.2460938    165.83264   
6.25         -139.76096  
6.2539062    -147.59334  
6.2578125    138.09669   
6.2617188    132.71729   
6.265625     157.8255    
6.2695312    -176.65202  
6.2734375    -143.22177  
6.2773438    -45.659084  
6.28125      116.25253   
6.2851562    80.438683   
6.2890625    104.98026   
6.2929688    -167.63345  
6.296875     -147.03294  
6.3007812    -140.08157  
6.3046875    -129.39731  
6.3085938    169.41789   
6.3125       -170.44661  
6.3164062    -61.799145  
6.3203125    38.437279   
6.3242188    131.77853   
6.328125     141.66431   
6.3320312    150.84865   
6.3359375    165.16541   
6.3398438    177.00278   
6.34375      17.441813   
6.3476562    61.063675   
6.3515625    24.515043   
6.3554688    58.335602   
6.359375     28.309263   
6.3632812    -123.98945  
6.3671875    -119.56573  
6.3710938    -121.4511   
6.375        -170.50764  
6.3789062    -83.626663  
6.3828125    103.01598   
6.3867188    163.60342   
6.390625     132.32957   
6.3945312    -163.64095  
6.3984375    169.75089   
6.4023438    126.14107   
6.40625      160.40083   
6.4101562    137.78825   
6.4140625    131.18791   
6.4179688    118.99412   
6.421875     88.076965   
6.4257812    60.196728   
6.4296875    71.436005   
6.4335938    140.41173   
6.4375       128.07329   
6.4414062    157.64418   
6.4453125    127.89158   
6.4492188    104.42057   
6.453125     -113.27934  
6.4570312    -71.743187  
6.4609375    -152.85912  
6.4648438    147.36542   
6.46875      161.26901   
6.4726562    174.25604   
6.4765625    -179.1909   
6.4804688    160.37355   
6.484375     146.2944    
6.4882812    149.57616   
6.4921875    115.99972   
6.4960938    119.22696   
6.5          76.10878    
6.5039062    99.646988   
6.5078125    132.49855   
6.5117188    155.84166   
6.515625     167.64058   
6.5195312    -170.90894  
6.5234375    175.00023   
6.5273438    132.0963    
6.53125      143.67857   
6.5351562    -135.29108  
6.5390625    157.68599   
6.5429688    142.16496   
6.546875     -178.08765  
6.5507812    -151.33139  
6.5546875    -128.24278  
6.5585938    145.52145   
6.5625       -164.13887  
6.5664062    -161.30418  
6.5703125    -139.86807  
6.5742188    -156.19582  
6.578125     170.47107   
6.5820312    -160.33459  
6.5859375    151.4872    
6.5898438    154.22876   
6.59375      129.83675   
6.5976562    -170.82495  
6.6015625    177.55135   
6.6054688    130.16383   
6.609375     129.62372   
6.6132812    -155.12634  
6.6171875    162.56815   
6.6210938    109.46204   
6.625        148.44659   
6.6289062    137.58943   
6.6328125    166.13055   
6.6367188    -60.603462  
6.640625     157.74193   
6.6445312    146.70306   
6.6484375    -165.59331  
6.6523438    -165.42178  
6.65625      110.02086   
6.6601562    131.48344   
6.6640625    133.86314   
6.6679688    163.82281   
6.671875     174.30042   
6.6757812    175.12646   
6.6796875    -155.32242  
6.6835938    -162.0786   
6.6875       151.22514   
6.6914062    141.04251   
6.6953125    172.60904   
6.6992188    -164.79225  
6.703125     -129.20782  
6.7070312    -178.53036  
6.7109375    163.4296    
6.7148438    159.22522   
6.71875      125.29076   
6.7226562    150.83031   
6.7265625    150.19041   
6.7304688    139.34769   
6.734375     148.05275   
6.7382812    125.58762   
6.7421875    121.55269   
6.7460938    138.21123   
6.75         36.961643   
6.7539062    148.25995   
6.7578125    158.40439   
6.7617188    164.49503   
6.765625     167.72052   
6.7695312    -168.5748   
6.7734375    -176.40533  
6.7773438    -58.910412  
6.78125      169.06911   
6.7851562    114.44862   
6.7890625    98.043655   
6.7929688    137.96736   
6.796875     158.06638   
6.8007812    179.44711   
6.8046875    171.47008   
6.8085938    66.763809   
6.8125       29.889967   
6.8164062    176.42624   
6.8203125    141.65834   
6.8242188    176.8011    
6.828125     -170.93608  
6.8320312    170.19917   
6.8359375    130.80812   
6.8398438    122.49268   
6.84375      158.68513   
6.8476562    159.77026   
6.8515625    176.46729   
6.8554688    163.30573   
6.859375     154.39909   
6.8632812    160.50919   
6.8671875    171.9731    
6.8710938    155.06323   
6.875        94.107391   
6.8789062    26.982414   
6.8828125    -47.533268  
6.8867188    -167.81642  
6.890625     -178.60738  
6.8945312    169.15521   
6.8984375    -167.46397  
6.9023438    149.96242   
6.90625      -172.19336  
6.9101562    139.23402   
6.9140625    110.09044   
6.9179688    -82.2724    
6.921875     -116.62175  
6.9257812    127.6698    
6.9296875    164.74452   
6.9335938    172.26256   
6.9375       -172.64941  
6.9414062    -145.05652  
6.9453125    -148.23773  
6.9492188    158.43372   
6.953125     150.29146   
6.9570312    150.98882   
6.9609375    146.66649   
6.9648438    -177.5731   
6.96875      -123.11683  
6.9726562    156.51007   
6.9765625    147.2282    
6.9804688    -179.34222  
6.984375     130.79849   
6.9882812    97.092918   
6.9921875    81.233643   
6.9960938    145.63095   
7            -125.26662  
7.0039062    -34.165409  
7.0078125    -52.198841  
7.0117188    86.258568   
7.015625     134.61015   
7.0195312    172.37691   
7.0234375    -171.05263  
7.0273438    173.54419   
7.03125      169.17841   
7.0351562    127.40834   
7.0390625    132.07025   
7.0429688    178.06819   
7.046875     175.29707   
7.0507812    104.76844   
7.0546875    125.35657   
7.0585938    92.8769     
7.0625       114.04868   
7.0664062    121.96878   
7.0703125    141.44061   
7.0742188    120.76569   
7.078125     100.61587   
7.0820312    123.01025   
7.0859375    165.09152   
7.0898438    174.56699   
7.09375      -175.65697  
7.0976562    -173.0697   
7.1015625    164.40523   
7.1054688    159.72786   
7.109375     154.35567   
7.1132812    175.00235   
7.1171875    -174.71417  
7.1210938    157.66505   
7.125        157.47528   
7.1289062    153.325     
7.1328125    116.07339   
7.1367188    154.12895   
7.140625     150.61693   
7.1445312    -146.20271  
7.1484375    -128.66318  
7.1523438    -170.10153  
7.15625      176.32661   
7.1601562    170.07288   
7.1640625    165.48627   
7.1679688    128.42938   
7.171875     141.62582   
7.1757812    151.17511   
7.1796875    -163.4854   
7.1835938    130.56902   
7.1875       -110.39123  
7.1914062    -134.73557  
7.1953125    155.77963   
7.1992188    128.52478   
7.203125     140.20529   
7.2070312    167.74387   
7.2109375    133.15089   
7.2148438    117.99895   
7.21875      92.048309   
7.2226562    111.62866   
7.2265625    157.40361   
7.2304688    -178.25105  
7.234375     -156.32747  
7.2382812    -154.3609   
7.2421875    -167.5627   
7.2460938    -178.93163  
7.25         -151.25104  
7.2539062    -148.6747   
7.2578125    163.22928   
7.2617188    163.07042   
7.265625     166.30319   
7.2695312    -175.34224  
7.2734375    156.44363   
7.2773438    -177.92186  
7.28125      -162.99571  
7.2851562    -178.30432  
7.2890625    172.74501   
7.2929688    -162.91634  
7.296875     -142.30972  
7.3007812    -173.4249   
7.3046875    165.67572   
7.3085938    -135.4904   
7.3125       -60.639832  
7.3164062    165.33675   
7.3203125    -171.26978  
7.3242188    -150.59245  
7.328125     130.21068   
7.3320312    151.93555   
7.3359375    162.80447   
7.3398438    169.1788    
7.34375      159.54536   
7.3476562    155.13417   
7.3515625    179.04933   
7.3554688    151.80429   
7.359375     155.66551   
7.3632812    151.36804   
7.3671875    -128.93594  
7.3710938    -162.19678  
7.375        -172.54597  
7.3789062    171.27681   
7.3828125    161.12247   
7.3867188    -148.48393  
7.390625     -140.10004  
7.3945312    -103.90031  
7.3984375    -167.205    
7.4023438    175.23965   
7.40625      153.33179   
7.4101562    174.52316   
7.4140625    -158.51234  
7.4179688    -164.72401  
7.421875     -175.91779  
7.4257812    158.10759   
7.4296875    -151.3071   
7.4335938    169.0126    
7.4375       143.26752   
7.4414062    141.77414   
7.4453125    142.56607   
7.4492188    -174.93726  
7.453125     151.56927   
7.4570312    172.54538   
7.4609375    164.93037   
7.4648438    150.94301   
7.46875      146.6236    
7.4726562    164.68857   
7.4765625    149.10641   
7.4804688    160.45465   
7.484375     -49.065334  
7.4882812    119.48444   
7.4921875    101.68041   
7.4960938    108.88369   
7.5          145.43501   
7.5039062    125.24269   
7.5078125    124.90526   
7.5117188    140.87454   
7.515625     177.53532   
7.5195312    -172.07883  
7.5234375    175.20685   
7.5273438    138.25253   
7.53125      148.73099   
7.5351562    162.21475   
7.5390625    162.96819   
7.5429688    138.93564   
7.546875     142.70581   
7.5507812    136.28398   
7.5546875    138.94101   
7.5585938    -158.20363  
7.5625       -167.34094  
7.5664062    154.73103   
7.5703125    162.27985   
7.5742188    174.87131   
7.578125     -172.49748  
7.5820312    -146.07668  
7.5859375    -168.90437  
7.5898438    125.76292   
7.59375      132.25369   
7.5976562    145.02773   
7.6015625    166.19318   
7.6054688    141.46515   
7.609375     146.53537   
7.6132812    174.15807   
7.6171875    155.61229   
7.6210938    129.82716   
7.625        149.31161   
7.6289062    158.50705   
7.6328125    -175.21402  
7.6367188    -142.53656  
7.640625     -173.0692   
7.6445312    161.49361   
7.6484375    173.80331   
7.6523438    166.56728   
7.65625      -177.88399  
7.6601562    166.90665   
7.6640625    174.05632   
7.6679688    -174.6472   
7.671875     -177.13863  
7.6757812    166.99742   
7.6796875    163.19229   
7.6835938    175.46826   
7.6875       -165.98759  
7.6914062    172.00648   
7.6953125    171.44724   
7.6992188    158.72289   
7.703125     160.30722   
7.7070312    -163.76155  
7.7109375    157.7079    
7.7148438    161.17149   
7.71875      157.38742   
7.7226562    161.17331   
7.7265625    152.60278   
7.7304688    -178.51337  
7.734375     168.71167   
7.7382812    143.85428   
7.7421875    153.82481   
7.7460938    156.69632   
7.75         164.6506    
7.7539062    158.50426   
7.7578125    178.96819   
7.7617188    -139.32452  
7.765625     151.72836   
7.7695312    167.93466   
7.7734375    145.14046   
7.7773438    -150.76596  
7.78125      -167.78992  
7.7851562    -164.83885  
7.7890625    -164.09035  
7.7929688    -168.04642  
7.796875     146.51662   
7.8007812    145.23334   
7.8046875    161.00047   
7.8085938    -175.54149  
7.8125       170.87357   
7.8164062    161.30377   
7.8203125    156.96681   
7.8242188    140.86258   
7.828125     174.35605   
7.8320312    -146.186    
7.8359375    167.81044   
7.8398438    172.71916   
7.84375      175.07913   
7.8476562    96.549721   
7.8515625    149.93941   
7.8554688    -179.54668  
7.859375     -177.32242  
7.8632812    -177.79602  
7.8671875    -170.29758  
7.8710938    165.57454   
7.875        137.0354    
7.8789062    152.06564   
7.8828125    167.14008   
7.8867188    169.2377    
7.890625     -159.242    
7.8945312    177.77187   
7.8984375    168.87035   
7.9023438    145.06047   
7.90625      150.16284   
7.9101562    160.5067    
7.9140625    -173.12947  
7.9179688    -168.14784  
7.921875     -176.83017  
7.9257812    156.46484   
7.9296875    158.58875   
7.9335938    162.78609   
7.9375       179.04402   
7.9414062    -152.46088  
7.9453125    174.93144   
7.9492188    -147.10579  
7.953125     -147.86919  
7.9570312    -169.05894  
7.9609375    144.29375   
7.9648438    136.11505   
7.96875      169.42183   
7.9726562    -171.46808  
7.9765625    179.26082   
7.9804688    170.0883    
7.984375     -153.68965  
7.9882812    -157.43555  
7.9921875    169.32106   
7.9960938    160.50037   
8            -169.75458  
8.0039062    -159.99484  
8.0078125    149.12209   
8.0117188    165.75491   
8.015625     156.94131   
8.0195312    -88.011078  
8.0234375    -91.197014  
8.0273438    139.95116   
8.03125      154.81578   
8.0351562    -179.25531  
8.0390625    169.36768   
8.0429688    -167.51505  
8.046875     163.46736   
8.0507812    175.20778   
8.0546875    -158.11601  
8.0585938    159.92307   
8.0625       156.00966   
8.0664062    170.685     
8.0703125    147.46382   
8.0742188    146.99966   
8.078125     -173.97168  
8.0820312    153.84732   
8.0859375    147.8801    
8.0898438    144.40675   
8.09375      65.434113   
8.0976562    154.15286   
8.1015625    162.08521   
8.1054688    132.04086   
8.109375     115.81697   
8.1132812    153.87511   
8.1171875    174.05008   
8.1210938    152.07826   
8.125        125.30895   
8.1289062    110.40693   
8.1328125    136.95946   
8.1367188    178.13516   
8.140625     178.35509   
8.1445312    166.59517   
8.1484375    156.97098   
8.1523438    149.19012   
8.15625      -149.05644  
8.1601562    -179.30106  
8.1640625    161.53677   
8.1679688    133.31706   
8.171875     143.5916    
8.1757812    158.81502   
8.1796875    179.28398   
8.1835938    159.1507    
8.1875       167.92616   
8.1914062    154.50926   
8.1953125    175.71448   
8.1992188    170.22287   
8.203125     147.02901   
8.2070312    -143.60538  
8.2109375    -140.93661  
8.2148438    164.22673   
8.21875      166.95885   
8.2226562    156.68991   
8.2265625    -168.16064  
8.2304688    -152.27998  
8.234375     129.6283    
8.2382812    112.80324   
8.2421875    129.67827   
8.2460938    130.09042   
8.25         137.94058   
8.2539062    165.56589   
8.2578125    171.1078    
8.2617188    151.63641   
8.265625     137.98366   
8.2695312    148.39783   
8.2734375    145.27795   
8.2773438    156.18127   
8.28125      173.83383   
8.2851562    -167.67738  
8.2890625    172.44913   
8.2929688    -172.86397  
8.296875     -167.33461  
8.3007812    171.12392   
8.3046875    139.91737   
8.3085938    156.631     
8.3125       164.01123   
8.3164062    113.36201   
8.3203125    107.11803   
8.3242188    178.66441   
8.328125     164.30318   
8.3320312    148.65143   
8.3359375    152.89659   
8.3398438    -149.22763  
8.34375      174.75381   
8.3476562    161.37007   
8.3515625    155.84334   
8.3554688    172.24362   
8.359375     157.40932   
8.3632812    168.5692    
8.3671875    -175.43811  
8.3710938    152.82576   
8.375        147.96936   
8.3789062    138.03261   
8.3828125    124.8851    
8.3867188    148.66272   
8.390625     -166.57127  
8.3945312    -156.58179  
8.3984375    -174.54962  
8.4023438    137.80652   
8.40625      147.02341   
8.4101562    159.37796   
8.4140625    -178.04657  
8.4179688    163.56558   
8.421875     164.43553   
8.4257812    165.02725   
8.4296875    -177.68028  
8.4335938    175.51442   
8.4375       161.01862   
8.4414062    174.61577   
8.4453125    172.94348   
8.4492188    171.42473   
8.453125     157.20981   
8.4570312    174.64935   
8.4609375    156.74861   
8.4648438    152.81371   
8.46875      161.86743   
8.4726562    176.7536    
8.4765625    -176.32472  
8.4804688    171.15843   
8.484375     167.86188   
8.4882812    150.05708   
8.4921875    124.75578   
8.4960938    146.90976   
8.5          167.82986   
8.5039062    156.12607   
8.5078125    147.00464   
8.5117188    -178.39526  
8.515625     169.94902   
8.5195312    154.76425   
8.5234375    116.56545   
8.5273438    133.08366   
8.53125      177.33543   
8.5351562    -175.45308  
8.5390625    172.61528   
8.5429688    173.57755   
8.546875     -178.20638  
8.5507812    -176.01947  
8.5546875    -175.95901  
8.5585938    177.21446   
8.5625       172.42799   
8.5664062    -160.63936  
8.5703125    125.02444   
8.5742188    126.23096   
8.578125     164.88397   
8.5820312    151.43715   
8.5859375    -177.91458  
8.5898438    -157.99429  
8.59375      176.35452   
8.5976562    168.01442   
8.6015625    151.88589   
8.6054688    153.14268   
8.609375     133.39789   
8.6132812    154.62183   
8.6171875    135.28899   
8.6210938    143.67288   
8.625        155.89268   
8.6289062    160.82945   
8.6328125    171.0988    
8.6367188    152.72424   
8.640625     138.48813   
8.6445312    157.29279   
8.6484375    147.79384   
8.6523438    154.91962   
8.65625      173.15549   
8.6601562    152.03954   
8.6640625    169.32199   
8.6679688    176.38881   
8.671875     158.61516   
8.6757812    166.05006   
8.6796875    166.2475    
8.6835938    172.10211   
8.6875       176.7796    
8.6914062    169.48076   
8.6953125    160.83304   
8.6992188    144.08492   
8.703125     140.04045   
8.7070312    163.66916   
8.7109375    152.8979    
8.7148438    164.5106    
8.71875      177.36824   
8.7226562    -177.63519  
8.7265625    167.25475   
8.7304688    164.49292   
8.734375     125.42841   
8.7382812    160.20068   
8.7421875    177.31363   
8.7460938    169.02477   
8.75         -176.39122  
8.7539062    161.95854   
8.7578125    155.14606   
8.7617188    124.37038   
8.765625     129.05045   
8.7695312    162.57335   
8.7734375    173.87325   
8.7773438    168.06287   
8.78125      167.10428   
8.7851562    153.1478    
8.7890625    148.61871   
8.7929688    151.78667   
8.796875     159.56625   
8.8007812    175.45509   
8.8046875    -160.77867  
8.8085938    176.98026   
8.8125       174.23466   
8.8164062    165.41637   
8.8203125    140.6765    
8.8242188    138.76968   
8.828125     172.46019   
8.8320312    166.37537   
8.8359375    168.95958   
8.8398438    158.90102   
8.84375      166.42522   
8.8476562    166.90488   
8.8515625    169.81908   
8.8554688    -172.33087  
8.859375     173.97665   
8.8632812    -179.2149   
8.8671875    176.77188   
8.8710938    179.90752   
8.875        -171.35977  
8.8789062    -179.17989  
8.8828125    -167.43613  
8.8867188    169.45604   
8.890625     152.66216   
8.8945312    147.87962   
8.8984375    167.67664   
8.9023438    -171.45409  
8.90625      -137.35117  
8.9101562    -148.10013  
8.9140625    -161.04984  
8.9179688    -174.91338  
8.921875     -160.45297  
8.9257812    -169.43152  
8.9296875    159.53218   
8.9335938    149.47311   
8.9375       159.85498   
8.9414062    150.17798   
8.9453125    161.67963   
8.9492188    165.61427   
8.953125     -164.45418  
8.9570312    -167.08084  
8.9609375    174.34155   
8.9648438    171.86887   
8.96875      176.13898   
8.9726562    156.5871    
8.9765625    132.05838   
8.9804688    149.1245    
8.984375     148.57883   
8.9882812    158.30203   
8.9921875    170.74077   
8.9960938    161.4603    
9            158.74867   
9.0039062    167.78802   
9.0078125    167.67809   
9.0117188    177.53497   
9.015625     152.93788   
9.0195312    139.11237   
9.0234375    176.6593    
9.0273438    148.12721   
9.03125      134.34619   
9.0351562    149.68988   
9.0390625    157.88803   
9.0429688    142.0683    
9.046875     161.84529   
9.0507812    167.31046   
9.0546875    117.91795   
9.0585938    149.72218   
9.0625       143.27429   
9.0664062    117.21561   
9.0703125    149.9245    
9.0742188    172.16238   
9.078125     -156.57979  
9.0820312    -153.02383  
9.0859375    -179.41174  
9.0898438    162.04103   
9.09375      150.11369   
9.0976562    167.22717   
9.1015625    151.25987   
9.1054688    135.6338    
9.109375     150.2769    
9.1132812    145.64049   
9.1171875    161.30766   
9.1210938    170.83577   
9.125        178.0775    
9.1289062    154.35992   
9.1328125    174.57736   
9.1367188    156.78304   
9.140625     178.79515   
9.1445312    -157.88191  
9.1484375    -160.36281  
9.1523438    168.62076   
9.15625      -176.83401  
9.1601562    -176.69804  
9.1640625    138.7719    
9.1679688    137.89517   
9.171875     155.21065   
9.1757812    146.83997   
9.1796875    144.28482   
9.1835938    151.63052   
9.1875       168.254     
9.1914062    170.77658   
9.1953125    151.06161   
9.1992188    138.30806   
9.203125     161.53415   
9.2070312    -173.48387  
9.2109375    154.52516   
9.2148438    154.47185   
9.21875      -167.09192  
9.2226562    141.57001   
9.2265625    137.53572   
9.2304688    139.0164    
9.234375     149.66208   
9.2382812    179.12848   
9.2421875    166.3465    
9.2460938    155.13594   
9.25         173.12184   
9.2539062    158.98732   
9.2578125    163.5594    
9.2617188    174.82852   
9.265625     164.5322    
9.2695312    146.47556   
9.2734375    155.81236   
9.2773438    160.86108   
9.28125      153.49858   
9.2851562    146.26736   
9.2890625    146.41127   
9.2929688    159.4514    
9.296875     168.39738   
9.3007812    149.37202   
9.3046875    156.24405   
9.3085938    172.30037   
9.3125       -179.6348   
9.3164062    -178.73679  
9.3203125    175.64919   
9.3242188    133.1438    
9.328125     145.43835   
9.3320312    -178.21124  
9.3359375    168.09123   
9.3398438    143.98178   
9.34375      137.57661   
9.3476562    141.37515   
9.3515625    115.08406   
9.3554688    133.13329   
9.359375     149.49043   
9.3632812    152.44569   
9.3671875    174.89336   
9.3710938    -163.43512  
9.375        168.53322   
9.3789062    154.6431    
9.3828125    162.56364   
9.3867188    158.57112   
9.390625     147.63754   
9.3945312    147.45332   
9.3984375    139.01401   
9.4023438    143.69165   
9.40625      155.08119   
9.4101562    154.67909   
9.4140625    143.9971    
9.4179688    -143.61084  
9.421875     171.85329   
9.4257812    157.34973   
9.4296875    -175.66405  
9.4335938    143.58128   
9.4375       150.30663   
9.4414062    157.77283   
9.4453125    130.90007   
9.4492188    157.89145   
9.453125     168.77142   
9.4570312    -162.23825  
9.4609375    177.50471   
9.4648438    154.53917   
9.46875      177.73369   
9.4726562    146.37202   
9.4765625    152.34036   
9.4804688    160.22676   
9.484375     -173.88626  
9.4882812    165.17789   
9.4921875    171.83127   
9.4960938    150.72244   
9.5          148.92221   
9.5039062    163.50455   
9.5078125    153.74194   
9.5117188    165.04126   
9.515625     142.50572   
9.5195312    132.22725   
9.5234375    142.78195   
9.5273438    179.32768   
9.53125      168.83585   
9.5351562    150.04796   
9.5390625    106.82287   
9.5429688    138.58539   
9.546875     155.22571   
9.5507812    158.73097   
9.5546875    140.17845   
9.5585938    169.33588   
9.5625       171.5182    
9.5664062    179.24275   
9.5703125    168.82161   
9.5742188    158.64166   
9.578125     164.23239   
9.5820312    153.54378   
9.5859375    137.13469   
9.5898438    150.88669   
9.59375      -171.65277  
9.5976562    169.39995   
9.6015625    154.43425   
9.6054688    169.93672   
9.609375     163.39209   
9.6132812    152.32324   
9.6171875    164.25566   
9.6210938    157.35846   
9.625        164.66856   
9.6289062    129.07956   
9.6328125    141.54156   
9.6367188    164.39215   
9.640625     147.56592   
9.6445312    129.90988   
9.6484375    166.27446   
9.6523438    172.96524   
9.65625      174.61336   
9.6601562    171.22966   
9.6640625    156.22356   
9.6679688    169.35362   
9.671875     175.40976   
9.6757812    151.37233   
9.6796875    166.12155   
9.6835938    167.80493   
9.6875       165.42036   
9.6914062    -173.81769  
9.6953125    179.44577   
9.6992188    151.69984   
9.703125     135.21251   
9.7070312    116.91058   
9.7109375    131.44576   
9.7148438    140.91089   
9.71875      151.79283   
9.7226562    163.75581   
9.7265625    -174.46542  
9.7304688    158.26382   
9.734375     154.99765   
9.7382812    -177.39714  
9.7421875    -156.22836  
9.7460938    167.79892   
9.75         131.97722   
9.7539062    136.89093   
9.7578125    168.26544   
9.7617188    155.63087   
9.765625     169.11533   
9.7695312    177.0565    
9.7734375    170.68816   
9.7773438    156.44493   
9.78125      162.04456   
9.7851562    165.7532    
9.7890625    150.6367    
9.7929688    113.53123   
9.796875     161.13597   
9.8007812    164.42212   
9.8046875    151.61075   
9.8085938    144.34172   
9.8125       159.10397   
9.8164062    159.79303   
9.8203125    179.18747   
9.8242188    153.39943   
9.828125     158.53395   
9.8320312    130.98099   
9.8359375    132.17073   
9.8398438    157.59633   
9.84375      145.62309   
9.8476562    142.8577    
9.8515625    160.37613   
9.8554688    159.12389   
9.859375     163.94154   
9.8632812    152.71338   
9.8671875    161.34721   
9.8710938    178.00427   
9.875        170.03618   
9.8789062    162.02098   
9.8828125    166.35399   
9.8867188    174.25952   
9.890625     -132.53987  
9.8945312    171.66971   
9.8984375    157.02592   
9.9023438    -178.77487  
9.90625      169.56712   
9.9101562    174.54288   
9.9140625    170.10555   
9.9179688    173.43384   
9.921875     169.96185   
9.9257812    173.68773   
9.9296875    159.47488   
9.9335938    157.51299   
9.9375       166.79781   
9.9414062    -176.25764  
9.9453125    162.26047   
9.9492188    153.65891   
9.953125     165.95734   
9.9570312    164.80379   
9.9609375    155.54501   
9.9648438    177.18871   
9.96875      -176.36717  
9.9726562    165.11008   
9.9765625    157.07213   
9.9804688    173.80753   
9.984375     154.20477   
9.9882812    111.1021    
9.9921875    113.88696   
9.9960938    152.24071   
10           160.84674   